# extract.py -o test/CO2-C13 -i 2 -m CO2 -x 1597,1603 -X nm ../../../hitran-master/hitran-master/par/02_hit12.par
#
# molecule: CO2
# temperature:   296.00 K
# pressure:     1013.25 mb
# number of lines:                        315
# min, max line strength:            1.01e-30     2.18e-25
# format: vSEan
# min, max airbroad.  widths:           0.065        0.096
# min, max selfbroad. widths:           0.068        0.130
# min, max temp. exponent:              0.650        0.790
#   position    strength      energy airWidth    Tdep
#       cm-1   cm-1/cm-2        cm-1     cm-1        
 6238.364451   7.585e-30  2506.07710  0.06820  0.7600
 6238.448740   1.569e-28  1313.71220  0.08640  0.7500
 6238.450791   2.202e-30  1954.19710  0.08790  0.7700
 6238.463238   5.179e-30  1061.48030  0.06900  0.7600
 6238.514075   1.447e-30  1061.48030  0.06890  0.7600
 6238.643074   1.400e-30  1320.70890  0.06810  0.7600
 6238.643800   1.434e-28  1906.50520  0.06820  0.7600
 6238.683755   2.533e-29  2080.09300  0.08110  0.7000
 6238.694534   1.012e-30  2771.45510  0.07810  0.6900
 6238.770957   4.296e-27   664.91030  0.08640  0.7500
 6238.794539   8.220e-26     7.80470  0.08730  0.7100
 6239.007282   8.518e-30  2477.17110  0.06830  0.7600
 6239.082907   8.963e-30  1012.21760  0.06920  0.7500
 6239.103766   2.007e-30  1257.50180  0.06830  0.7600
 6239.141977   5.857e-30  2569.33400  0.06810  0.7600
 6239.247370   1.005e-30  3066.98850  0.06940  0.7500
 6239.254552   2.655e-29  2088.57810  0.08010  0.6900
 6239.263732   3.225e-29  1500.32040  0.07050  0.7300
 6239.267087   1.265e-28  1309.01290  0.08720  0.7600
 6239.331831   1.099e-28  1971.30700  0.06800  0.7500
 6239.384023   1.031e-30  2782.40670  0.07710  0.6900
 6239.411200   1.055e-30  1710.65860  0.06900  0.7600
 6239.459515   6.727e-28   197.42590  0.07180  0.7200
 6239.493446   7.854e-28  1430.85510  0.07910  0.6900
 6239.538077   2.762e-30  1197.40950  0.06840  0.7600
 6239.582092   3.619e-27   660.19650  0.08720  0.7600
 6239.644227   1.232e-30  1685.60600  0.06910  0.7600
 6239.651093   1.201e-29   966.07880  0.06950  0.7500
 6239.870475   1.429e-30  1661.34860  0.06920  0.7500
 6239.881260   4.444e-30  2635.70580  0.06800  0.7500
 6239.907168   6.632e-30  2539.03340  0.06820  0.7600
 6239.962188   3.976e-30  1140.43300  0.06860  0.7600
 6239.981796   8.285e-29  2039.22270  0.06790  0.7500
 6240.078331   9.216e-29  1305.09700  0.08790  0.7700
 6240.083964   2.750e-29  2098.07370  0.07910  0.6900
 6240.086747   1.034e-30  2794.14040  0.07610  0.6900
 6240.089230   1.658e-30  1637.86080  0.06940  0.7500
 6240.181759   1.592e-29   923.06460  0.07010  0.7400
 6240.299547   1.915e-30  1615.16560  0.06950  0.7500
 6240.355466   5.513e-30  1086.57310  0.06880  0.7600
 6240.399787   2.884e-27   656.30310  0.08790  0.7700
 6240.399805   4.227e-26     2.34140  0.09200  0.6700
 6240.503853   2.209e-30  1593.24290  0.06980  0.7400
 6240.584187   3.314e-30  2705.19210  0.06780  0.7500
 6240.591714   6.140e-29  2110.25050  0.06770  0.7400
 6240.598826   2.822e-29  2108.07860  0.07810  0.6900
 6240.612375   3.065e-29  1540.17290  0.06980  0.7400
 6240.673343   2.090e-29   883.17570  0.07070  0.7300
 6240.700831   2.539e-30  1572.11040  0.07010  0.7400
 6240.727083   7.535e-30  1035.83090  0.06910  0.7600
 6240.759797   1.036e-30  2806.65600  0.07520  0.6900
 6240.774350   5.074e-30  2604.01980  0.06800  0.7500
 6240.829995   8.177e-28  1451.89750  0.07710  0.6900
 6240.885887   5.203e-29  1301.96410  0.08850  0.7800
 6240.889541   2.915e-30  1551.75280  0.07040  0.7300
 6240.952681   1.062e-30  2028.72510  0.07760  0.6900
 6241.044128   1.208e-30  2017.74260  0.07870  0.6900
 6241.071559   3.335e-30  1532.18350  0.07070  0.7300
 6241.075724   1.018e-29   988.20710  0.06940  0.7500
 6241.087775   6.099e-28   163.87610  0.07290  0.7000
 6241.126679   1.376e-30  2007.54460  0.07970  0.6900
 6241.127336   2.722e-29   846.41290  0.07160  0.7200
 6241.164162   4.475e-29  2184.38940  0.06740  0.7400
 6241.202860   2.084e-27   653.16560  0.08850  0.7800
 6241.204661   1.571e-30  1998.13060  0.08070  0.7000
 6241.246114   3.811e-30  1513.39140  0.07120  0.7300
 6241.248478   2.429e-30  2777.79100  0.06750  0.7400
 6241.275714   1.800e-30  1989.50110  0.08180  0.7000
 6241.338305   2.073e-30  1981.65590  0.08290  0.7100
 6241.395960   2.405e-30  1974.59520  0.08400  0.7200
 6241.399421   1.360e-29   943.70260  0.06980  0.7400
 6241.413501   4.343e-30  1495.38570  0.07160  0.7200
 6241.447327   2.819e-30  1968.31900  0.08510  0.7300
 6241.455831   1.023e-30  2819.95390  0.07440  0.7000
 6241.458629   2.868e-29  2119.18090  0.07710  0.6900
 6241.492587   3.352e-30  1962.82710  0.08610  0.7500
 6241.531539   4.069e-30  1958.11990  0.08710  0.7600
 6241.542605   3.518e-29   812.77680  0.07270  0.7100
 6241.562398   5.097e-30  1954.19710  0.08800  0.7700
 6241.577137   4.944e-30  1478.15910  0.07210  0.7100
 6241.589000   6.716e-30  1951.05900  0.08890  0.7700
 6241.608420   3.814e-30  2672.12890  0.06790  0.7500
 6241.697758   3.207e-29  2261.63820  0.06720  0.7300
 6241.706367   1.799e-29   902.31800  0.07040  0.7300
 6241.728906   5.616e-30  1461.71780  0.07270  0.7100
 6241.874796   6.372e-30  1446.05660  0.07330  0.7000
 6241.874815   1.750e-30  2853.50170  0.06730  0.7400
 6241.912059   2.892e-29  2130.69850  0.07610  0.6900
 6241.918778   4.522e-29   782.26780  0.07400  0.7000
 6241.942641   2.819e-29  1583.14720  0.06940  0.7500
 6241.987001   2.357e-29   864.05410  0.07120  0.7300
 6241.999821   1.186e-27   650.82570  0.08930  0.7800
 6242.014100   7.220e-30  1431.18010  0.07400  0.7000
 6242.110985   1.011e-30  2834.03300  0.07360  0.7000
 6242.135878   8.234e-28  1476.05640  0.07520  0.6900
 6242.144290   8.176e-30  1417.08450  0.07480  0.6900
 6242.191729   2.261e-29  2341.99490  0.06700  0.7300
 6242.244364   3.065e-29   828.91150  0.07210  0.7100
 6242.257167   5.793e-29   754.88660  0.07570  0.6900
 6242.267312   9.252e-30  1403.77290  0.07570  0.6900
 6242.385069   1.047e-29  1391.24320  0.07660  0.6900
 6242.408886   2.819e-30  2743.35910  0.06770  0.7400
 6242.466733   1.239e-30  2932.32250  0.06710  0.7300
 6242.480110   3.957e-29   796.89080  0.07330  0.7000
 6242.494148   1.185e-29  1379.49710  0.07760  0.6900
 6242.556794   7.419e-29   730.63350  0.07760  0.6900
 6242.594847   1.343e-29  1368.53320  0.07870  0.6900
 6242.647267   1.568e-29  2425.45830  0.06680  0.7200
 6242.690608   1.524e-29  1358.35280  0.07970  0.6900
 6242.692332   5.085e-29   767.99240  0.07480  0.6900
 6242.710157   5.265e-28   133.44560  0.07430  0.6900
 6242.741190   2.142e-26     0.00000  0.09530  0.6500
 6242.776139   1.735e-29  1348.95500  0.08070  0.7000
 6242.806249   2.891e-29  2143.41410  0.07520  0.6900
 6242.817921   9.541e-29   709.50900  0.07970  0.6900
 6242.855660   1.982e-29  1340.34030  0.08180  0.7000
 6242.882803   6.520e-29   742.21700  0.07660  0.6900
 6242.929014   2.277e-29  1332.50850  0.08290  0.7100
 6242.994793   2.636e-29  1325.46010  0.08400  0.7200
 6243.040400   1.241e-28   691.51350  0.08180  0.7000
 6243.049016   8.373e-29   719.56490  0.07870  0.6900
 6243.052746   3.082e-29  1319.19450  0.08510  0.7300
 6243.065253   1.070e-29  2512.02660  0.06640  0.7100
 6243.103706   3.658e-29  1313.71220  0.08610  0.7500
 6243.148014   4.434e-29  1309.01290  0.08710  0.7600
 6243.176643   2.047e-30  2817.70950  0.06740  0.7400
 6243.183113   5.546e-29  1305.09700  0.08800  0.7700
 6243.192490   1.083e-28   700.03650  0.08070  0.7000
 6243.193125   2.871e-29  2156.43730  0.07440  0.7000
 6243.211090   7.300e-29  1301.96410  0.08890  0.7700
 6243.224007   1.649e-28   676.64710  0.08400  0.7200
 6243.235441   1.055e-28  1299.61450  0.09030  0.7800
 6243.254429   2.515e-29  1629.24280  0.06910  0.7500
 6243.313311   1.422e-28   683.63210  0.08290  0.7100
 6243.368574   2.289e-28   664.91030  0.08610  0.7500
 6243.411195   1.927e-28   670.35200  0.08510  0.7300
 6243.411399   8.051e-28  1503.33150  0.07360  0.7000
 6243.444633   7.180e-30  2601.69850  0.06610  0.7100
 6243.475442   3.470e-28   656.30310  0.08800  0.7700
 6243.484728   2.773e-28   660.19650  0.08710  0.7600
 6243.537335   4.566e-28   653.16560  0.08890  0.7700
 6243.542619   6.600e-28   650.82570  0.09030  0.7800
 6243.566068   1.197e-27   649.25950  0.09550  0.7700
 6243.784637   4.742e-30  2694.47190  0.06580  0.7000
 6243.911699   1.462e-30  2895.17820  0.06720  0.7300
 6244.086609   3.081e-30  2790.34520  0.06550  0.7000
 6244.128563   2.829e-29  2170.77290  0.07360  0.7000
 6244.257793   6.360e-26     2.34140  0.08840  0.7300
 6244.326279   4.294e-28   106.13470  0.07600  0.6900
 6244.349893   1.970e-30  2889.31670  0.06510  0.6900
 6244.442519   2.772e-29  2185.29440  0.07290  0.7000
 6244.547410   2.181e-29  1678.45870  0.06880  0.7600
 6244.575558   1.240e-30  2991.38450  0.06480  0.6900
 6244.613782   1.027e-30  2975.76420  0.06700  0.7300
 6244.656879   7.665e-28  1533.72230  0.07240  0.7100
 6244.700636   2.246e-30  1951.05900  0.08790  0.7700
 6245.108867   1.199e-27   649.25950  0.08930  0.7800
 6245.424262   2.696e-29  2201.25710  0.07240  0.7100
 6245.454135   4.045e-30  1954.19710  0.08720  0.7600
 6245.560643   5.285e-29  1299.61450  0.08850  0.7800
 6245.660058   2.609e-29  2217.27000  0.07180  0.7200
 6245.740198   1.033e-25     7.80470  0.08580  0.7000
 6245.822084   1.841e-29  1730.79390  0.06860  0.7600
 6245.872653   7.122e-28  1567.22850  0.07130  0.7200
 6245.877094   2.116e-27   650.82570  0.08850  0.7800
 6245.934775   3.273e-28    81.94400  0.07800  0.6900
 6246.199887   5.582e-30  1958.11990  0.08640  0.7500
 6246.315871   9.410e-29  1301.96410  0.08790  0.7700
 6246.612990   2.944e-27   653.16560  0.08790  0.7700
 6246.694419   2.506e-29  2234.86620  0.07130  0.7200
 6246.846492   2.397e-29  2252.36280  0.07090  0.7300
 6246.939275   6.927e-30  1962.82710  0.08540  0.7400
 6247.057787   6.466e-28  1603.84940  0.07050  0.7300
 6247.064039   1.298e-28  1305.09700  0.08720  0.7600
 6247.078729   1.516e-29  1786.24760  0.06840  0.7600
 6247.186869   1.389e-25    16.38970  0.08380  0.6700
 6247.378078   3.712e-27   656.30310  0.08720  0.7600
 6247.541063   2.295e-28    60.87380  0.08000  0.6900
 6247.672187   8.114e-30  1968.31900  0.08440  0.7300
 6247.802980   1.618e-28  1309.01290  0.08640  0.7500
 6247.938589   2.277e-29  2271.59960  0.07050  0.7300
 6248.000643   2.154e-29  2290.57280  0.07020  0.7400
 6248.082345   4.430e-27   660.19650  0.08640  0.7500
 6248.213830   5.744e-28  1643.58470  0.06990  0.7400
 6248.316174   1.218e-29  1844.81840  0.06820  0.7600
 6248.399120   9.157e-30  1974.59520  0.08330  0.7200
 6248.535003   1.908e-28  1313.71220  0.08540  0.7400
 6248.598878   1.688e-25    28.09640  0.08160  0.7000
 6248.852984   5.091e-27   664.91030  0.08540  0.7400
 6249.120875   1.006e-29  1981.65590  0.08220  0.7100
 6249.123368   1.894e-29  2331.89920  0.06960  0.7400
 6249.137434   1.442e-28    42.92450  0.08220  0.7100
 6249.157104   2.024e-29  2311.45680  0.06990  0.7400
 6249.260390   2.168e-28  1319.19450  0.08440  0.7300
 6249.339012   4.997e-28  1686.43370  0.06940  0.7500
 6249.519075   5.698e-27   670.35200  0.08440  0.7300
 6249.536333   9.567e-30  1906.50520  0.06810  0.7600
 6249.834187   1.083e-29  1989.50110  0.08110  0.7000
 6249.975424   1.921e-25    42.92450  0.08000  0.7000
 6249.977576   2.400e-28  1325.46010  0.08330  0.7200
 6250.214832   1.632e-29  2376.34130  0.06930  0.7500
 6250.298332   6.240e-27   676.64710  0.08330  0.7200
 6250.350133   1.761e-29  2354.43730  0.06940  0.7500
 6250.435573   4.260e-28  1732.39580  0.06910  0.7500
 6250.540410   1.147e-29  1998.13060  0.08010  0.6900
 6250.687325   2.604e-28  1332.50850  0.08220  0.7100
 6250.721847   7.784e-29    28.09640  0.08440  0.7300
 6250.739351   7.348e-30  1971.30700  0.06800  0.7500
 6250.921730   6.721e-27   683.63210  0.08220  0.7100
 6251.242342   1.199e-29  2007.54460  0.07910  0.6900
 6251.274999   1.378e-29  2423.89870  0.06900  0.7600
 6251.317201   2.081e-25    60.87380  0.07810  0.6900
 6251.390711   2.778e-28  1340.34030  0.08110  0.7000
 6251.502614   3.561e-28  1781.47010  0.06890  0.7600
 6251.517335   1.502e-29  2400.54000  0.06910  0.7500
 6251.715537   7.130e-27   691.51350  0.08110  0.7000
 6251.924568   5.523e-30  2039.22270  0.06780  0.7500
 6251.935211   1.237e-29  2017.74260  0.07810  0.6900
 6252.088526   2.924e-28  1348.95500  0.08010  0.6900
 6252.290402   7.476e-27   700.03650  0.08010  0.6900
 6252.304079   1.142e-29  2474.57030  0.06880  0.7600
 6252.304511   3.317e-29    16.38970  0.08640  0.7500
 6252.541304   2.920e-28  1833.65620  0.06870  0.7600
 6252.623631   2.168e-25    81.94400  0.07660  0.6800
 6252.627023   1.263e-29  2028.72510  0.07710  0.6900
 6252.658557   1.257e-29  2449.76490  0.06890  0.7600
 6252.775307   3.040e-28  1358.35280  0.07910  0.6900
 6253.093545   4.066e-30  2110.25050  0.06760  0.7400
 6253.104926   7.744e-27   709.50900  0.07910  0.6900
 6253.302191   9.280e-30  2528.35550  0.06860  0.7600
 6253.305398   1.278e-29  2040.49180  0.07610  0.6900
 6253.458016   3.127e-28  1368.53320  0.07810  0.6900
 6253.550069   2.350e-28  1888.95320  0.06840  0.7600
 6253.625419   7.953e-27   719.56490  0.07810  0.6900
 6253.775647   1.031e-29  2502.11080  0.06870  0.7600
 6253.871190   1.110e-30  2535.15870  0.07050  0.7300
 6253.887134   9.120e-30     7.80470  0.08790  0.7700
 6253.895657   2.185e-25   106.13470  0.07470  0.6700
 6253.983188   1.282e-29  2053.04250  0.07520  0.6900
 6254.131159   3.186e-28  1379.49710  0.07710  0.6900
 6254.245569   2.932e-30  2184.38940  0.06740  0.7400
 6254.268980   7.405e-30  2585.25320  0.06840  0.7600
 6254.466259   8.081e-27   730.63350  0.07710  0.6900
 6254.530864   1.857e-28  1947.36040  0.06830  0.7600
 6254.649794   1.275e-29  2066.37770  0.07440  0.7000
 6254.797024   3.218e-28  1391.24320  0.07610  0.6900
 6254.866319   8.305e-30  2557.57690  0.06840  0.7600
 6254.926877   8.156e-27   742.21700  0.07610  0.6900
 6255.132473   2.139e-25   133.44560  0.07380  0.6500
 6255.205153   5.802e-30  2645.26290  0.06820  0.7600
 6255.316188   1.259e-29  2080.49660  0.07360  0.7000
 6255.382037   2.073e-30  2261.63820  0.06720  0.7300
 6255.455951   3.223e-28  1403.77290  0.07520  0.6900
 6255.483507   1.441e-28  2008.87660  0.06820  0.7600
 6255.714006   1.238e-30  2497.22140  0.07140  0.7200
 6255.798041   8.153e-27   754.88660  0.07520  0.6900
 6255.931935   6.567e-30  2616.16260  0.06830  0.7600
 6255.969420   1.235e-29  2095.39970  0.07290  0.7000
 6256.109566   3.205e-28  1417.08450  0.07440  0.7000
 6256.110716   4.465e-30  2708.38330  0.06810  0.7600
 6256.194211   8.105e-27   767.99240  0.07440  0.7000
 6256.334199   2.039e-25   163.87610  0.07270  0.6900
 6256.407982   1.099e-28  2073.50120  0.06800  0.7500
 6256.502814   1.438e-30  2341.99490  0.06690  0.7300
 6256.618188   1.202e-29  2111.08670  0.07240  0.7100
 6256.751288   3.163e-28  1431.18010  0.07360  0.7000
 6256.972751   5.100e-30  2677.86670  0.06820  0.7600
 6256.986901   3.376e-30  2774.61400  0.06800  0.7500
 6257.103014   7.986e-27   782.26780  0.07360  0.7000
 6257.262855   1.163e-29  2127.55740  0.07180  0.7200
 6257.305081   8.230e-29  2141.23340  0.06790  0.7500
 6257.390208   3.101e-28  1446.05660  0.07290  0.7000
 6257.428648   7.834e-27   796.89080  0.07290  0.7000
 6257.501973   1.897e-25   197.42590  0.07180  0.7000
 6257.527945   1.349e-30  2462.37890  0.07240  0.7100
 6257.831115   2.508e-30  2843.95310  0.06780  0.7500
 6257.903451   1.118e-29  2144.81200  0.07130  0.7200
 6257.989151   3.891e-30  2742.68870  0.06800  0.7500
 6258.018353   3.021e-28  1461.71780  0.07240  0.7100
 6258.175153   6.058e-29  2212.07200  0.06770  0.7400
 6258.379062   7.616e-27   812.77680  0.07240  0.7100
 6258.533188   1.069e-29  2162.85060  0.07090  0.7300
 6258.628817   7.380e-27   828.91150  0.07180  0.7200
 6258.634417   1.725e-25   234.09440  0.07100  0.7100
 6258.640317   2.924e-28  1478.15910  0.07180  0.7200
 6258.646440   1.831e-30  2916.40010  0.06750  0.7400
 6258.980870   2.917e-30  2810.62720  0.06790  0.7500
 6259.018167   4.382e-29  2286.01560  0.06740  0.7400
 6259.154794   1.016e-29  2181.67260  0.07050  0.7300
 6259.251628   2.814e-28  1495.38570  0.07130  0.7200
 6259.327368   1.434e-30  2430.63180  0.07360  0.7000
 6259.350388   8.064e-30     2.34140  0.08850  0.7800
 6259.430554   1.314e-30  2991.95390  0.06730  0.7400
 6259.628097   7.088e-27   846.41290  0.07130  0.7200
 6259.732451   1.535e-25   273.88090  0.07030  0.7000
 6259.772850   9.598e-30  2201.27810  0.07020  0.7400
 6259.795090   6.790e-27   864.05410  0.07090  0.7300
 6259.834685   3.116e-29  2363.06400  0.06720  0.7300
 6259.863711   2.692e-28  1513.39140  0.07090  0.7300
 6259.947596   2.149e-30  2881.68160  0.06770  0.7400
 6260.385880   9.018e-30  2221.66720  0.06990  0.7400
 6260.458937   2.561e-28  1532.18350  0.07050  0.7300
 6260.625716   2.178e-29  2443.21530  0.06700  0.7300
 6260.712487   1.035e-30  1765.29880  0.06690  0.7200
 6260.796359   1.338e-25   316.78480  0.07000  0.7900
 6260.848570   6.447e-27   883.17570  0.07050  0.7300
 6260.889500   3.158e-29     7.80470  0.08720  0.7600
 6260.890770   1.556e-30  2955.85060  0.06740  0.7400
 6260.928415   6.110e-27   902.31800  0.07020  0.7400
 6260.986969   8.430e-30  2242.83980  0.06960  0.7400
 6261.058249   2.422e-28  1551.75280  0.07020  0.7400
 6261.094933   1.484e-30  2401.98020  0.07520  0.6900
 6261.390506   1.497e-29  2526.46880  0.06680  0.7200
 6261.589350   7.836e-30  2264.79570  0.06940  0.7500
 6261.636512   2.280e-28  1572.11040  0.06990  0.7400
